# NSLS_DAC V0.9 Datafile V0
# "tipb.305" created on 4/25/96 at 4:57 AM on X-11A
# Ring energy= 2.58 GeV
# E0= 4966.00
# NUM_REGIONS= 3
# SRB= -200 -20 30 16k
# SRSS= 20 0.3 0.07k
# SPP= 1 1 1
# Settling time= 0.30
# Offsets=  51986.60 51485.80 4224.50
# Gains=  8.00 10.00 10.00
# PbTiO3 Ti k-edge polycrystal transmission 300K
#---------------------------------------------------------------------------
#     Energy          I0           I          Ir
     4765.99       51437       32771         -12
     4786.00       52786       36084         -18
     4806.00       53901       39503         -18
     4826.00       54862       43048         -14
     4845.99       55801       47026         -18
     4865.99       57245       51504         -12
     4886.00       57548       55492         -20
     4905.99       59160       60892         -12
     4926.00       60370       66272         -10
     4945.99       61515       72118         -12
     4946.30       61486       72127         -10
     4946.60       61510       72076         -14
     4946.90       61532       72130         -16
     4947.19       61569       72301         -16
     4947.50       61596       72465         -16
     4947.80       61573       72534         -14
     4948.10       61589       72468         -14
     4948.40       61606       72655         -18
     4948.71       61624       72609         -18
     4949.00       61633       72773         -16
     4949.30       61662       72823         -12
     4949.60       61703       72981         -14
     4949.89       61715       73068         -12
     4950.20       61764       73248         -16
     4950.50       61791       73344         -16
     4950.80       61788       73398         -16
     4951.10       61823       73486         -20
     4951.39       61805       73489         -12
     4951.70       61797       73582         -16
     4952.00       61838       73599         -16
     4952.30       61849       73728         -10
     4952.60       61830       73817         -20
     4952.90       61867       73918         -14
     4953.21       61900       73995         -20
     4953.50       61901       74021         -18
     4953.80       61902       74021         -14
     4954.10       61934       74125         -14
     4954.40       61929       74188         -22
     4954.70       61945       74290         -16
     4954.99       62001       74553         -12
     4955.30       62033       74617         -10
     4955.60       62030       74733         -12
     4955.90       62058       74674         -10
     4956.20       62058       74809         -16
     4956.50       62086       74945         -16
     4956.80       62088       74928         -14
     4957.09       62121       75109         -12
     4957.41       62112       75082         -14
     4957.70       62116       75271         -16
     4958.00       62144       75294         -10
     4958.30       62175       75492         -20
     4958.60       62203       75508         -10
     4958.90       62202       75633         -14
     4959.20       62229       75668         -12
     4959.50       62304       75815         -14
     4959.81       62307       75853         -12
     4960.10       62321       75927         -16
     4960.40       62322       76045         -10
     4960.70       62331       76008         -10
     4961.00       62345       76175         -16
     4961.30       62384       76287         -10
     4961.60       62429       76309         -12
     4961.90       62421       76311         -18
     4962.20       62415       76287         -10
     4962.50       62487       76582         -14
     4962.80       62467       76476         -16
     4963.09       62521       76513         -14
     4963.39       62542       76518         -14
     4963.71       62533       76365         -18
     4964.00       62546       76151         -20
     4964.30       62582       75939         -16
     4964.60       62567       75676         -14
     4964.90       62556       75271         -16
     4965.20       62579       74905         -12
     4965.50       62612       73589         -14
     4965.80       62612       71836         -16
     4966.10       62638       70490         -16
     4966.40       62666       70915         -14
     4966.70       62682       72202         -10
     4967.00       62689       73278         -16
     4967.30       62673       73808         -18
     4967.60       62723       74377         -14
     4967.90       62739       74753         -16
     4968.20       62762       74999         -10
     4968.50       62791       74999         -14
     4968.80       62769       74822         -12
     4969.10       62814       74760         -14
     4969.40       62802       74556         -14
     4969.70       62853       74618         -20
     4970.00       62861       74711         -16
     4970.30       62839       75015         -18
     4970.60       62879       75408         -18
     4970.90       62903       75770         -14
     4971.20       62903       76145         -18
     4971.50       62980       76510         -16
     4971.80       62960       76748         -14
     4972.10       62987       76931         -18
     4972.40       62980       76990         -18
     4972.70       62987       77059         -22
     4973.00       62986       76941         -16
     4973.30       63018       76803         -16
     4973.60       63063       76393         -14
     4973.90       63087       76015         -20
     4974.20       63081       75302         -18
     4974.50       63078       74397         -14
     4974.81       63158       73046         -18
     4975.11       63164       71373         -16
     4975.39       63145       69421         -14
     4975.69       63161       67197         -12
     4976.00       63223       65609         -14
     4976.30       63225       63994         -14
     4976.60       63265       62781         -12
     4976.90       63268       61732         -12
     4977.20       63272       60907         -12
     4977.50       63313       60054         -20
     4977.80       63305       59122         -14
     4978.10       63340       58164         -12
     4978.40       63350       57300         -10
     4978.71       63371       56796         -12
     4978.99       63403       56690         -16
     4979.30       63414       57165         -12
     4979.60       63431       58070         -20
     4979.90       63472       59000         -18
     4980.20       63462       59890          -8
     4980.50       63515       60877         -16
     4980.80       63519       61403          -6
     4981.10       63509       61702         -14
     4981.41       63539       62072         -16
     4981.69       63544       62037          -8
     4982.00       63577       62045         -16
     4982.30       63577       61820         -12
     4982.60       63610       61493         -14
     4982.90       63658       60891         -10
     4983.20       63680       60377         -18
     4983.51       63677       59783         -12
     4983.79       63693       59289         -10
     4984.10       63750       58838         -10
     4984.40       63757       58422         -10
     4984.70       63757       57861         -14
     4985.00       63794       57335         -12
     4985.30       63826       56561         -12
     4985.59       63860       55652         -12
     4985.90       63867       54936         -14
     4986.20       63919       54232         -10
     4986.50       63931       53655         -12
     4986.80       63935       53536         -20
     4987.11       63959       53433          -8
     4987.40       63961       53711         -10
     4987.70       63984       54007         -16
     4988.00       64006       54447         -10
     4988.30       64037       55051         -12
     4988.60       64057       55446         -14
     4988.89       64065       55887         -14
     4989.20       64072       56101         -14
     4989.50       64127       56227         -14
     4989.80       64108       56194         -16
     4990.11       64145       56082         -14
     4990.40       64184       56111         -14
     4990.70       64183       55858         -10
     4991.00       64207       55918         -10
     4991.30       64234       55922         -10
     4991.59       64266       56179          -8
     4991.90       64262       56425         -12
     4992.20       64285       56825         -14
     4992.50       64293       57105          -8
     4992.79       64335       57476         -14
     4993.10       64326       57750         -14
     4993.40       64336       58178          -8
     4993.70       64374       58656         -10
     4993.99       64354       58896          -8
     4994.30       64411       59341          -6
     4994.60       64421       59752          -6
     4994.90       64413       60080         -12
     4995.19       64465       60375          -8
     4995.50       64446       60595          -8
     4995.80       64488       60970          -6
     4997.51       64547       61498          -6
     4999.07       64611       61075         -14
     5000.66       64704       61613         -10
     5002.29       64805       62426          -8
     5003.95       64878       63141         -14
     5005.65       64971       63685         -10
     5007.39       65052       64751         -12
     5009.17       65080       65531          -8
     5010.98       65203       66354         -10
     5012.84       65334       67052         -12
     5014.72       65417       67589         -16
     5016.65       65528       68800         -10
     5018.61       65643       70245         -16
     5020.61       65753       71521         -14
     5022.65       65865       72557         -16
     5024.73       65664       73037         -14
     5026.84       66042       73624         -10
     5029.00       66133       73606         -12
     5031.18       66252       73489         -14
     5033.40       66351       73274         -10
     5035.67       66426       73609         -12
     5037.97       66532       74176         -10
     5040.30       66667       74844         -12
     5042.68       66785       75493          -6
     5045.09       66942       75769         -10
     5047.53       66960       75947         -10
     5050.02       67146       76419         -10
     5052.54       67286       77214         -10
     5055.11       67373       77959         -20
     5057.71       67493       78548         -10
     5060.33       67635       79550         -10
     5063.02       67718       80465         -10
     5065.73       67836       81445         -12
     5068.48       67913       81811         -16
     5071.26       68103       82663         -20
     5074.08       68281       83747         -16
     5076.94       68437       84790         -10
     5079.83       68539       86072         -16
     5082.77       68737       87261         -12
     5085.74       68869       88168         -14
     5088.76       68975       89292          -8
     5091.80       69119       90563         -14
     5094.88       69226       91978         -14
     5098.00       69389       93266         -18
     5101.16       69503       94289         -16
     5104.35       69603       95210         -14
     5107.59       69774       96164         -14
     5110.86       69818       96988         -10
     5114.17       69947       98222         -16
     5117.51       70082       99418         -16
     5120.90       70183      100873         -20
     5124.32       70330      102032         -14
     5127.77       70450      102810         -12
     5131.27       70601      103713         -12
     5134.79       70755      104898         -12
     5138.37       70911      106047         -10
     5141.97       71061      107727         -16
     5145.61       71214      109604         -12
     5149.30       71410      111265         -16
     5153.02       71671      112717         -12
     5156.77       71800      114155         -16
     5160.56       71946      115604         -12
     5164.39       72044      117135         -16
     5168.26       72148      119181         -10
     5172.17       72403      120937         -16
     5176.11       72619      122780         -14
     5180.09       72901      124710         -18
     5184.11       71734      124016         -16
     5188.17       73154      128113         -22
     5192.25       73308      130008         -16
     5196.38       73492      131859         -22
     5200.54       73850      134438         -14
     5204.76       74023      136322         -20
     5208.99       74222      138249         -16
     5213.27       74386      140419         -20
     5217.59       74625      142237         -20
     5221.93       74778      144205         -18
     5226.32       74959      146302         -22
     5230.76       75137      148587         -20
     5235.23       75281      150525         -14
     5239.73       75492      153049         -22
     5244.26       75658      155229         -16
     5248.85       75876      157585         -16
     5253.46       76122      160233         -16
     5258.12       76327      163068         -22
     5262.80       76491      165617         -14
     5267.52       76761      168327         -12
     5272.29       76932      170882         -20
     5277.09       77162      173570         -16
     5281.92       77327      176169          -8
     5286.81       77561      178899         -10
     5291.72       77748      181873         -12
     5296.67       77942      184851         -10
     5301.66       78143      188056         -12
     5306.68       78192      190899         -14
     5311.75       78502      194550         -16
     5316.84       79253      200764         -18
     5321.99       79434      201969         -18
     5327.16       79681      205883         -22
     5332.37       79941      209229         -18
     5337.62       80253      212829         -12
     5342.91       80535      216268         -12
     5348.23       80736      220030         -14
     5353.58       81018      223588         -20
     5358.98       81214      227491         -12
     5364.42       81427      231378         -16
     5369.89       81832      235973         -14
     5375.41       81768      239261         -12
     5380.95       82115      243914         -14
     5386.54       82227      247606         -16
     5392.16       82458      251954         -14
     5397.83       82681      256718         -16
     5403.52       82770      260377         -20
     5409.25       83049      264921         -18
     5415.03       83316      269668         -22
     5420.83       83564      274386         -18
     5426.68       83753      279002         -18
     5432.56       84055      284189         -16
     5438.48       84240      289198         -16
     5444.45       84452      294451         -16
     5450.44       84667      299630         -12
     5456.47       84823      304961         -14
     5462.55       85048      310164         -20
     5468.65       85283      315566         -16
     5474.80       85442      320733         -14
     5480.98       85726      326394         -14
     5487.20       85977      331905         -12
     5493.47       86236      338277         -18
     5499.75       86603      344633         -20
     5506.08       86805      350777         -20
     5512.46       87028      356945         -16
     5518.87       87381      363987         -20
     5525.31       87655      370869         -16
     5531.80       87915      377719         -16
     5538.30       88051      383746          -8
     5544.87       88328      391088         -18
     5551.45       88548      398013         -18
     5558.09       88844      405868         -16
     5564.76       89034      412813         -16
     5571.46       89269      420487         -22
     5578.21       89447      428019         -18
     5584.99       89723      435712         -14
     5591.81       89962      443563         -10
     5598.66       90241      452218         -18
     5605.54       90381      459741         -18
     5612.48       90689      468426          -8
     5619.45       91009      477505         -18
     5626.46       91187      485960         -22
     5633.50       91429      494917         -18
     5640.57       92205      506877         -20
     5647.69       92257      515233         -20
     5654.83       92521      524831         -26
     5662.03       92739      534657         -24
     5669.25       93045      544683         -20
     5676.53       93324      554906         -20
     5683.82       93852      566819         -22
     5691.17       94110      577656         -20
     5698.55       94212      587437         -18
     5705.95       94371      597569         -26
     5713.41       94686      609361         -14
     5720.91       94860      620211         -16
     5728.42       94987      631234         -18
     5736.00       95168      642500         -22
     5743.59       95122      652663         -12
     5751.24       95377      664326         -16
     5758.91       95593      677014         -18
     5766.62       95739      688740         -10
     5774.37       95842      700039         -16
     5782.16       96007      712885         -14
     5789.99       95964      724164         -18
     5797.84       96298      738244         -22
     5805.75       96540      751752         -16
     5813.68       96663      765215         -12
     5821.66       96903      779277         -10
     5829.67       97078      793150         -18
     5837.73       97252      807490         -22
     5845.81       97452      821760         -16
     5853.93       97672      836884         -14
     5862.09       97978      852986         -14
     5870.29       98148      868126         -24
     5878.52       97942      880239         -22
     5886.81       98414      898093         -14
     5895.11       98839      916340         -18
     5903.47       99076      933385         -18
     5911.85       99324      950300         -20
     5920.28       99646      968768         -16
     5928.73       99919      986136         -22
     5937.23      100102     1004488         -24
     5945.77      100460     1023929         -16
